File: rheology/fitting_dataP3 + P40.csv
0.01,0.114867,0.0325917
0.0147,0.162633,0.058862
0.0215,0.222333,0.0664764
0.0316,0.217,0.0571664
0.0464,0.181667,0.0378124
0.0681,0.156,0.0215019
0.1,0.136667,0.0143101
0.147,0.126333,0.00881917
0.215,0.112667,0.00688799
0.316,0.1004,0.00465761
0.464,0.091,0.00376431
0.681,0.0821333,0.00284742
1.0,0.0745667,0.00217281
1.47,0.0673333,0.00175246
2.15,0.0599,0.0015308
3.16,0.0528,0.00130512
4.64,0.0469,0.00104083
6.81,0.0413,0.000873689
10.0,0.0364,0.00072111
14.7,0.0319,0.00061101
21.5,0.0279333,0.000491031
31.6,0.0244333,0.000392994
46.4,0.0213333,0.000338296
68.1,0.0186667,0.000272845
100.0,0.0163667,0.000218581
147.0,0.0143333,0.000185592
215.0,0.0126,0.000152753
316.0,0.0111,0.0001
464.0,0.00979667,8.21246e-05
681.0,0.00871,6.50641e-05
1000.0,0.00777333,4.91031e-05