File: rheology/fitting_dataP20 + P40.csv
0.01,-0.0569,0.0122415
0.0147,0.0589,0.0916621
0.0215,0.145737,0.155658
0.0316,0.159277,0.15589
0.0464,0.12744,0.128282
0.0681,0.125266,0.125734
0.1,0.096405,0.093595
0.147,0.06855,0.05845
0.215,0.0537,0.0428
0.316,0.0344,0.0231
0.464,0.02495,0.01245
0.681,0.0274,0.0141
1.0,0.0188,0.0047
1.47,0.01745,0.00315
2.15,0.01575,0.00165
3.16,0.015,0.0017
4.64,0.014,0.001
6.81,0.01315,0.00075
10.0,0.01245,0.00055
14.7,0.0116,0.0004
21.5,0.01075,0.00035
31.6,0.010005,0.000295
46.4,0.00923,0.00023
68.1,0.00852,0.00019
100.0,0.007815,0.000165
147.0,0.00718,0.00014
215.0,0.006585,0.000125
316.0,0.00605,0.00011
464.0,0.00555,0.0001
681.0,0.00517,9e-05
1000.0,0.00489,9e-05