File: rheology/fitting_dataP40.csv
0.01,-0.0236367,0.0156795
0.0147,-0.000503333,0.0125395
0.0215,0.0462333,0.0110599
0.0316,0.0323333,0.00597281
0.0464,0.0176333,0.00387054
0.0681,0.00835333,0.000767514
0.1,0.00673667,0.00101327
0.147,0.0127667,0.000328295
0.215,0.00916,0.000920887
0.316,0.00901333,0.000700484
0.464,0.00962333,0.000381066
0.681,0.00985333,0.000232188
1.0,0.0109333,0.000272845
1.47,0.011,0.000152753
2.15,0.0108,0.000152753
3.16,0.01023,0.000123423
4.64,0.0102233,0.000129915
6.81,0.00987,9.50438e-05
10.0,0.00963333,8.83805e-05
14.7,0.00921333,8.29324e-05
21.5,0.00874,7.2111e-05
31.6,0.00826333,6.33333e-05
46.4,0.00776667,5.60753e-05
68.1,0.00728333,4.97773e-05
100.0,0.00676667,4.09607e-05
147.0,0.0063,3.78594e-05
215.0,0.00584667,3.1798e-05
316.0,0.00542,2.88675e-05
464.0,0.00502333,2.60342e-05
681.0,0.00472667,2.33333e-05
1000.0,0.00453667,2.33333e-05