File: rheology/fitting_dataP20.csv
0.01,0.0563,0.0610035
0.0147,0.0927,0.0631437
0.0215,0.0976667,0.0551437
0.0316,0.0551,0.0198611
0.0464,0.0340333,0.00347387
0.0681,0.0262667,0.00140515
0.1,0.0185667,0.00525907
0.147,0.0260333,0.00380541
0.215,0.0250333,0.00099387
0.316,0.0243,0.00181475
0.464,0.0240667,0.00126667
0.681,0.0238667,0.000656591
1.0,0.0234333,0.00117945
1.47,0.0226333,0.00103655
2.15,0.0212667,0.00103976
3.16,0.0201667,0.000742369
4.64,0.0191333,0.000676593
6.81,0.0177333,0.0005696
10.0,0.0165333,0.000517472
14.7,0.0152,0.000450925
21.5,0.0139333,0.000366667
31.6,0.0126667,0.000333333
46.4,0.0115333,0.000266667
68.1,0.0104533,0.000246667
100.0,0.00943667,0.000203661
147.0,0.00854,0.00018037
215.0,0.00772333,0.00016231
316.0,0.00699667,0.000144376
464.0,0.00635,0.000121244
681.0,0.00582667,0.000114649
1000.0,0.00542,9.71253e-05