File: rheology/fitting_dataP3 + P20.csv
0.01,0.327667,0.0141461
0.0147,0.395,0.0023094
0.0215,0.444,0.0043589
0.0316,0.429333,0.0112596
0.0464,0.394333,0.0154955
0.0681,0.363667,0.0128106
0.1,0.325,0.0121655
0.147,0.29,0.0106927
0.215,0.248,0.00866025
0.316,0.215333,0.00664162
0.464,0.187333,0.00520683
0.681,0.163333,0.00375648
1.0,0.142667,0.00290593
1.47,0.124,0.0023094
2.15,0.107,0.00173205
3.16,0.0916,0.00133167
4.64,0.0789,0.0010116
6.81,0.0675667,0.000751295
10.0,0.0578667,0.000664162
14.7,0.0492667,0.000466667
21.5,0.0418667,0.000352767
31.6,0.0355333,0.000272845
46.4,0.0301667,0.000185592
68.1,0.0256667,0.000133333
100.0,0.0219,0.0001
147.0,0.0186667,8.81917e-05
215.0,0.0159333,3.33333e-05
316.0,0.0137333,3.33333e-05
464.0,0.0118,0.0
681.0,0.0102333,3.33333e-05
1000.0,0.00891333,1.45297e-05